"File_220518_105221 - RawData"
"Wavelength nm."	"Abs."
400.00	0.30222
400.20	0.30210
400.40	0.30195
400.60	0.30180
400.80	0.30159
401.00	0.30139
401.20	0.30116
401.40	0.30094
401.60	0.30069
401.80	0.30047
402.00	0.30024
402.20	0.30001
402.40	0.29980
402.60	0.29961
402.80	0.29942
403.00	0.29927
403.20	0.29906
403.40	0.29892
403.60	0.29875
403.80	0.29863
404.00	0.29846
404.20	0.29830
404.40	0.29809
404.60	0.29792
404.80	0.29778
405.00	0.29764
405.20	0.29743
405.40	0.29731
405.60	0.29710
405.80	0.29697
406.00	0.29678
406.20	0.29664
406.40	0.29642
406.60	0.29626
406.80	0.29613
407.00	0.29601
407.20	0.29585
407.40	0.29569
407.60	0.29553
407.80	0.29541
408.00	0.29522
408.20	0.29511
408.40	0.29496
408.60	0.29484
408.80	0.29470
409.00	0.29463
409.20	0.29454
409.40	0.29442
409.60	0.29432
409.80	0.29425
410.00	0.29412
410.20	0.29406
410.40	0.29396
410.60	0.29384
410.80	0.29377
411.00	0.29375
411.20	0.29371
411.40	0.29367
411.60	0.29363
411.80	0.29359
412.00	0.29360
412.20	0.29360
412.40	0.29362
412.60	0.29369
412.80	0.29371
413.00	0.29378
413.20	0.29391
413.40	0.29391
413.60	0.29390
413.80	0.29394
414.00	0.29400
414.20	0.29401
414.40	0.29407
414.60	0.29410
414.80	0.29409
415.00	0.29410
415.20	0.29408
415.40	0.29407
415.60	0.29407
415.80	0.29398
416.00	0.29393
416.20	0.29386
416.40	0.29382
416.60	0.29371
416.80	0.29360
417.00	0.29346
417.20	0.29322
417.40	0.29308
417.60	0.29289
417.80	0.29268
418.00	0.29247
418.20	0.29217
418.40	0.29193
418.60	0.29167
418.80	0.29139
419.00	0.29110
419.20	0.29081
419.40	0.29053
419.60	0.29025
419.80	0.29000
420.00	0.28976
420.20	0.28953
420.40	0.28928
420.60	0.28902
420.80	0.28879
421.00	0.28855
421.20	0.28837
421.40	0.28822
421.60	0.28799
421.80	0.28777
422.00	0.28760
422.20	0.28739
422.40	0.28725
422.60	0.28704
422.80	0.28688
423.00	0.28671
423.20	0.28652
423.40	0.28636
423.60	0.28624
423.80	0.28613
424.00	0.28599
424.20	0.28587
424.40	0.28580
424.60	0.28562
424.80	0.28548
425.00	0.28536
425.20	0.28524
425.40	0.28509
425.60	0.28500
425.80	0.28494
426.00	0.28488
426.20	0.28478
426.40	0.28463
426.60	0.28454
426.80	0.28444
427.00	0.28432
427.20	0.28429
427.40	0.28424
427.60	0.28414
427.80	0.28407
428.00	0.28397
428.20	0.28388
428.40	0.28377
428.60	0.28367
428.80	0.28358
429.00	0.28351
429.20	0.28341
429.40	0.28333
429.60	0.28327
429.80	0.28320
430.00	0.28313
430.20	0.28306
430.40	0.28298
430.60	0.28291
430.80	0.28282
431.00	0.28272
431.20	0.28265
431.40	0.28255
431.60	0.28243
431.80	0.28234
432.00	0.28226
432.20	0.28218
432.40	0.28211
432.60	0.28205
432.80	0.28198
433.00	0.28192
433.20	0.28187
433.40	0.28181
433.60	0.28173
433.80	0.28165
434.00	0.28160
434.20	0.28158
434.40	0.28151
434.60	0.28145
434.80	0.28140
435.00	0.28134
435.20	0.28126
435.40	0.28119
435.60	0.28113
435.80	0.28106
436.00	0.28103
436.20	0.28100
436.40	0.28093
436.60	0.28089
436.80	0.28083
437.00	0.28085
437.20	0.28079
437.40	0.28072
437.60	0.28061
437.80	0.28056
438.00	0.28053
438.20	0.28045
438.40	0.28042
438.60	0.28038
438.80	0.28033
439.00	0.28030
439.20	0.28025
439.40	0.28024
439.60	0.28017
439.80	0.28017
440.00	0.28015
440.20	0.28017
440.40	0.28019
440.60	0.28022
440.80	0.28024
441.00	0.28024
441.20	0.28025
441.40	0.28027
441.60	0.28033
441.80	0.28038
442.00	0.28045
442.20	0.28059
442.40	0.28069
442.60	0.28088
442.80	0.28105
443.00	0.28124
443.20	0.28152
443.40	0.28187
443.60	0.28226
443.80	0.28268
444.00	0.28324
444.20	0.28380
444.40	0.28440
444.60	0.28504
444.80	0.28568
445.00	0.28641
445.20	0.28712
445.40	0.28793
445.60	0.28874
445.80	0.28952
446.00	0.29030
446.20	0.29103
446.40	0.29179
446.60	0.29243
446.80	0.29310
447.00	0.29368
447.20	0.29417
447.40	0.29463
447.60	0.29504
447.80	0.29537
448.00	0.29556
448.20	0.29568
448.40	0.29573
448.60	0.29571
448.80	0.29563
449.00	0.29543
449.20	0.29516
449.40	0.29478
449.60	0.29440
449.80	0.29395
450.00	0.29344
450.20	0.29287
450.40	0.29222
450.60	0.29158
450.80	0.29091
451.00	0.29017
451.20	0.28945
451.40	0.28875
451.60	0.28804
451.80	0.28735
452.00	0.28667
452.20	0.28601
452.40	0.28541
452.60	0.28485
452.80	0.28425
453.00	0.28376
453.20	0.28327
453.40	0.28282
453.60	0.28242
453.80	0.28198
454.00	0.28154
454.20	0.28112
454.40	0.28078
454.60	0.28042
454.80	0.28005
455.00	0.27970
455.20	0.27932
455.40	0.27898
455.60	0.27859
455.80	0.27822
456.00	0.27788
456.20	0.27752
456.40	0.27719
456.60	0.27684
456.80	0.27651
457.00	0.27617
457.20	0.27584
457.40	0.27547
457.60	0.27509
457.80	0.27478
458.00	0.27445
458.20	0.27418
458.40	0.27389
458.60	0.27361
458.80	0.27335
459.00	0.27308
459.20	0.27287
459.40	0.27267
459.60	0.27247
459.80	0.27229
460.00	0.27219
460.20	0.27211
460.40	0.27198
460.60	0.27192
460.80	0.27189
461.00	0.27181
461.20	0.27180
461.40	0.27176
461.60	0.27179
461.80	0.27177
462.00	0.27178
462.20	0.27177
462.40	0.27178
462.60	0.27177
462.80	0.27177
463.00	0.27177
463.20	0.27175
463.40	0.27176
463.60	0.27183
463.80	0.27183
464.00	0.27189
464.20	0.27190
464.40	0.27193
464.60	0.27196
464.80	0.27202
465.00	0.27207
465.20	0.27211
465.40	0.27218
465.60	0.27223
465.80	0.27228
466.00	0.27226
466.20	0.27228
466.40	0.27228
466.60	0.27226
466.80	0.27226
467.00	0.27232
467.20	0.27231
467.40	0.27229
467.60	0.27231
467.80	0.27233
468.00	0.27230
468.20	0.27229
468.40	0.27228
468.60	0.27230
468.80	0.27227
469.00	0.27230
469.20	0.27226
469.40	0.27225
469.60	0.27223
469.80	0.27223
470.00	0.27222
470.20	0.27221
470.40	0.27220
470.60	0.27219
470.80	0.27219
471.00	0.27219
471.20	0.27217
471.40	0.27216
471.60	0.27212
471.80	0.27213
472.00	0.27210
472.20	0.27207
472.40	0.27205
472.60	0.27204
472.80	0.27199
473.00	0.27194
473.20	0.27187
473.40	0.27182
473.60	0.27177
473.80	0.27169
474.00	0.27165
474.20	0.27157
474.40	0.27151
474.60	0.27143
474.80	0.27135
475.00	0.27127
475.20	0.27118
475.40	0.27110
475.60	0.27101
475.80	0.27091
476.00	0.27082
476.20	0.27073
476.40	0.27065
476.60	0.27055
476.80	0.27049
477.00	0.27038
477.20	0.27032
477.40	0.27025
477.60	0.27019
477.80	0.27012
478.00	0.27008
478.20	0.27006
478.40	0.27010
478.60	0.27010
478.80	0.27011
479.00	0.27012
479.20	0.27015
479.40	0.27018
479.60	0.27025
479.80	0.27028
480.00	0.27028
480.20	0.27029
480.40	0.27032
480.60	0.27033
480.80	0.27038
481.00	0.27035
481.20	0.27037
481.40	0.27037
481.60	0.27039
481.80	0.27037
482.00	0.27038
482.20	0.27037
482.40	0.27039
482.60	0.27040
482.80	0.27042
483.00	0.27040
483.20	0.27044
483.40	0.27039
483.60	0.27038
483.80	0.27035
484.00	0.27033
484.20	0.27026
484.40	0.27020
484.60	0.27010
484.80	0.27001
485.00	0.26990
485.20	0.26979
485.40	0.26967
485.60	0.26957
485.80	0.26942
486.00	0.26926
486.20	0.26913
486.40	0.26899
486.60	0.26880
486.80	0.26863
487.00	0.26846
487.20	0.26830
487.40	0.26814
487.60	0.26798
487.80	0.26780
488.00	0.26758
488.20	0.26738
488.40	0.26720
488.60	0.26702
488.80	0.26682
489.00	0.26663
489.20	0.26647
489.40	0.26628
489.60	0.26613
489.80	0.26600
490.00	0.26580
490.20	0.26564
490.40	0.26548
490.60	0.26537
490.80	0.26524
491.00	0.26509
491.20	0.26500
491.40	0.26488
491.60	0.26475
491.80	0.26465
492.00	0.26457
492.20	0.26447
492.40	0.26438
492.60	0.26434
492.80	0.26424
493.00	0.26420
493.20	0.26413
493.40	0.26408
493.60	0.26406
493.80	0.26399
494.00	0.26395
494.20	0.26390
494.40	0.26390
494.60	0.26387
494.80	0.26383
495.00	0.26379
495.20	0.26372
495.40	0.26368
495.60	0.26362
495.80	0.26360
496.00	0.26357
496.20	0.26351
496.40	0.26345
496.60	0.26342
496.80	0.26337
497.00	0.26332
497.20	0.26324
497.40	0.26319
497.60	0.26315
497.80	0.26312
498.00	0.26313
498.20	0.26308
498.40	0.26302
498.60	0.26296
498.80	0.26292
499.00	0.26292
499.20	0.26288
499.40	0.26287
499.60	0.26284
499.80	0.26287
500.00	0.26286
500.20	0.26285
500.40	0.26283
500.60	0.26280
500.80	0.26280
501.00	0.26278
501.20	0.26278
501.40	0.26277
501.60	0.26276
501.80	0.26274
502.00	0.26273
502.20	0.26269
502.40	0.26265
502.60	0.26262
502.80	0.26258
503.00	0.26253
503.20	0.26252
503.40	0.26251
503.60	0.26248
503.80	0.26247
504.00	0.26241
504.20	0.26235
504.40	0.26236
504.60	0.26232
504.80	0.26227
505.00	0.26226
505.20	0.26225
505.40	0.26221
505.60	0.26222
505.80	0.26219
506.00	0.26219
506.20	0.26217
506.40	0.26210
506.60	0.26212
506.80	0.26213
507.00	0.26205
507.20	0.26202
507.40	0.26204
507.60	0.26206
507.80	0.26206
508.00	0.26207
508.20	0.26204
508.40	0.26201
508.60	0.26199
508.80	0.26197
509.00	0.26198
509.20	0.26199
509.40	0.26195
509.60	0.26197
509.80	0.26196
510.00	0.26191
510.20	0.26184
510.40	0.26181
510.60	0.26178
510.80	0.26176
511.00	0.26173
511.20	0.26170
511.40	0.26169
511.60	0.26168
511.80	0.26164
512.00	0.26163
512.20	0.26163
512.40	0.26159
512.60	0.26159
512.80	0.26159
513.00	0.26155
513.20	0.26153
513.40	0.26150
513.60	0.26149
513.80	0.26147
514.00	0.26145
514.20	0.26140
514.40	0.26138
514.60	0.26136
514.80	0.26135
515.00	0.26139
515.20	0.26136
515.40	0.26129
515.60	0.26128
515.80	0.26128
516.00	0.26128
516.20	0.26129
516.40	0.26128
516.60	0.26123
516.80	0.26127
517.00	0.26125
517.20	0.26126
517.40	0.26121
517.60	0.26119
517.80	0.26122
518.00	0.26126
518.20	0.26120
518.40	0.26116
518.60	0.26115
518.80	0.26113
519.00	0.26112
519.20	0.26115
519.40	0.26110
519.60	0.26110
519.80	0.26107
520.00	0.26107
520.20	0.26102
520.40	0.26095
520.60	0.26090
520.80	0.26095
521.00	0.26096
521.20	0.26098
521.40	0.26097
521.60	0.26093
521.80	0.26096
522.00	0.26095
522.20	0.26095
522.40	0.26091
522.60	0.26092
522.80	0.26092
523.00	0.26095
523.20	0.26097
523.40	0.26097
523.60	0.26099
523.80	0.26098
524.00	0.26097
524.20	0.26101
524.40	0.26099
524.60	0.26101
524.80	0.26099
525.00	0.26102
525.20	0.26102
525.40	0.26102
525.60	0.26106
525.80	0.26106
526.00	0.26108
526.20	0.26105
526.40	0.26110
526.60	0.26110
526.80	0.26113
527.00	0.26116
527.20	0.26114
527.40	0.26119
527.60	0.26123
527.80	0.26131
528.00	0.26137
528.20	0.26140
528.40	0.26148
528.60	0.26151
528.80	0.26161
529.00	0.26165
529.20	0.26179
529.40	0.26191
529.60	0.26207
529.80	0.26230
530.00	0.26249
530.20	0.26273
530.40	0.26292
530.60	0.26316
530.80	0.26346
531.00	0.26378
531.20	0.26417
531.40	0.26458
531.60	0.26498
531.80	0.26539
532.00	0.26582
532.20	0.26625
532.40	0.26673
532.60	0.26724
532.80	0.26775
533.00	0.26825
533.20	0.26874
533.40	0.26924
533.60	0.26971
533.80	0.27018
534.00	0.27063
534.20	0.27106
534.40	0.27149
534.60	0.27186
534.80	0.27221
535.00	0.27253
535.20	0.27280
535.40	0.27306
535.60	0.27332
535.80	0.27356
536.00	0.27372
536.20	0.27384
536.40	0.27394
536.60	0.27401
536.80	0.27407
537.00	0.27408
537.20	0.27409
537.40	0.27407
537.60	0.27396
537.80	0.27386
538.00	0.27371
538.20	0.27353
538.40	0.27334
538.60	0.27317
538.80	0.27302
539.00	0.27284
539.20	0.27261
539.40	0.27240
539.60	0.27218
539.80	0.27194
540.00	0.27167
540.20	0.27144
540.40	0.27115
540.60	0.27091
540.80	0.27064
541.00	0.27036
541.20	0.27004
541.40	0.26972
541.60	0.26939
541.80	0.26903
542.00	0.26867
542.20	0.26831
542.40	0.26793
542.60	0.26755
542.80	0.26717
543.00	0.26685
543.20	0.26645
543.40	0.26614
543.60	0.26581
543.80	0.26550
544.00	0.26519
544.20	0.26486
544.40	0.26458
544.60	0.26432
544.80	0.26405
545.00	0.26384
545.20	0.26367
545.40	0.26348
545.60	0.26333
545.80	0.26319
546.00	0.26303
546.20	0.26288
546.40	0.26277
546.60	0.26265
546.80	0.26259
547.00	0.26252
547.20	0.26244
547.40	0.26241
547.60	0.26238
547.80	0.26232
548.00	0.26225
548.20	0.26221
548.40	0.26215
548.60	0.26212
548.80	0.26208
549.00	0.26204
549.20	0.26202
549.40	0.26196
549.60	0.26191
549.80	0.26190
550.00	0.26186
550.20	0.26182
550.40	0.26179
550.60	0.26179
550.80	0.26174
551.00	0.26171
551.20	0.26168
551.40	0.26165
551.60	0.26162
551.80	0.26157
552.00	0.26158
552.20	0.26159
552.40	0.26156
552.60	0.26156
552.80	0.26153
553.00	0.26153
553.20	0.26153
553.40	0.26154
553.60	0.26156
553.80	0.26154
554.00	0.26155
554.20	0.26155
554.40	0.26159
554.60	0.26158
554.80	0.26156
555.00	0.26157
555.20	0.26157
555.40	0.26157
555.60	0.26155
555.80	0.26154
556.00	0.26153
556.20	0.26155
556.40	0.26158
556.60	0.26160
556.80	0.26163
557.00	0.26162
557.20	0.26161
557.40	0.26162
557.60	0.26160
557.80	0.26159
558.00	0.26159
558.20	0.26157
558.40	0.26158
558.60	0.26157
558.80	0.26155
559.00	0.26152
559.20	0.26151
559.40	0.26148
559.60	0.26145
559.80	0.26145
560.00	0.26144
560.20	0.26144
560.40	0.26144
560.60	0.26144
560.80	0.26145
561.00	0.26143
561.20	0.26148
561.40	0.26145
561.60	0.26145
561.80	0.26146
562.00	0.26143
562.20	0.26144
562.40	0.26144
562.60	0.26142
562.80	0.26142
563.00	0.26140
563.20	0.26138
563.40	0.26141
563.60	0.26144
563.80	0.26141
564.00	0.26141
564.20	0.26145
564.40	0.26149
564.60	0.26152
564.80	0.26153
565.00	0.26155
565.20	0.26162
565.40	0.26167
565.60	0.26173
565.80	0.26183
566.00	0.26185
566.20	0.26187
566.40	0.26191
566.60	0.26199
566.80	0.26201
567.00	0.26202
567.20	0.26209
567.40	0.26214
567.60	0.26219
567.80	0.26221
568.00	0.26225
568.20	0.26224
568.40	0.26223
568.60	0.26225
568.80	0.26228
569.00	0.26233
569.20	0.26234
569.40	0.26238
569.60	0.26246
569.80	0.26249
570.00	0.26254
570.20	0.26259
570.40	0.26268
570.60	0.26275
570.80	0.26283
571.00	0.26288
571.20	0.26293
571.40	0.26298
571.60	0.26303
571.80	0.26305
572.00	0.26309
572.20	0.26310
572.40	0.26314
572.60	0.26317
572.80	0.26319
573.00	0.26320
573.20	0.26321
573.40	0.26326
573.60	0.26329
573.80	0.26334
574.00	0.26337
574.20	0.26339
574.40	0.26346
574.60	0.26349
574.80	0.26350
575.00	0.26354
575.20	0.26357
575.40	0.26360
575.60	0.26364
575.80	0.26367
576.00	0.26371
576.20	0.26373
576.40	0.26371
576.60	0.26373
576.80	0.26373
577.00	0.26373
577.20	0.26374
577.40	0.26377
577.60	0.26377
577.80	0.26377
578.00	0.26374
578.20	0.26371
578.40	0.26371
578.60	0.26367
578.80	0.26368
579.00	0.26368
579.20	0.26364
579.40	0.26364
579.60	0.26361
579.80	0.26360
580.00	0.26356
580.20	0.26353
580.40	0.26351
580.60	0.26350
580.80	0.26350
581.00	0.26347
581.20	0.26346
581.40	0.26341
581.60	0.26341
581.80	0.26341
582.00	0.26341
582.20	0.26342
582.40	0.26341
582.60	0.26339
582.80	0.26338
583.00	0.26338
583.20	0.26339
583.40	0.26338
583.60	0.26338
583.80	0.26334
584.00	0.26333
584.20	0.26328
584.40	0.26326
584.60	0.26324
584.80	0.26320
585.00	0.26316
585.20	0.26316
585.40	0.26314
585.60	0.26312
585.80	0.26307
586.00	0.26305
586.20	0.26299
586.40	0.26301
586.60	0.26300
586.80	0.26303
587.00	0.26305
587.20	0.26305
587.40	0.26303
587.60	0.26307
587.80	0.26303
588.00	0.26301
588.20	0.26304
588.40	0.26308
588.60	0.26306
588.80	0.26306
589.00	0.26303
589.20	0.26304
589.40	0.26304
589.60	0.26304
589.80	0.26303
590.00	0.26304
590.20	0.26302
590.40	0.26307
590.60	0.26307
590.80	0.26307
591.00	0.26305
591.20	0.26308
591.40	0.26311
591.60	0.26313
591.80	0.26315
592.00	0.26315
592.20	0.26316
592.40	0.26317
592.60	0.26316
592.80	0.26317
593.00	0.26318
593.20	0.26323
593.40	0.26324
593.60	0.26325
593.80	0.26327
594.00	0.26330
594.20	0.26337
594.40	0.26339
594.60	0.26341
594.80	0.26345
595.00	0.26349
595.20	0.26356
595.40	0.26360
595.60	0.26362
595.80	0.26366
596.00	0.26372
596.20	0.26376
596.40	0.26379
596.60	0.26381
596.80	0.26382
597.00	0.26384
597.20	0.26388
597.40	0.26390
597.60	0.26395
597.80	0.26397
598.00	0.26401
598.20	0.26404
598.40	0.26406
598.60	0.26407
598.80	0.26411
599.00	0.26415
599.20	0.26419
599.40	0.26421
599.60	0.26425
599.80	0.26428
600.00	0.26433
600.20	0.26433
600.40	0.26436
600.60	0.26440
600.80	0.26444
601.00	0.26445
601.20	0.26448
601.40	0.26453
601.60	0.26457
601.80	0.26459
602.00	0.26465
602.20	0.26469
602.40	0.26473
602.60	0.26475
602.80	0.26478
603.00	0.26480
603.20	0.26482
603.40	0.26487
603.60	0.26493
603.80	0.26493
604.00	0.26493
604.20	0.26495
604.40	0.26499
604.60	0.26502
604.80	0.26508
605.00	0.26512
605.20	0.26515
605.40	0.26519
605.60	0.26522
605.80	0.26525
606.00	0.26525
606.20	0.26525
606.40	0.26532
606.60	0.26533
606.80	0.26532
607.00	0.26535
607.20	0.26534
607.40	0.26533
607.60	0.26533
607.80	0.26534
608.00	0.26536
608.20	0.26538
608.40	0.26540
608.60	0.26541
608.80	0.26545
609.00	0.26548
609.20	0.26553
609.40	0.26556
609.60	0.26559
609.80	0.26560
610.00	0.26560
610.20	0.26560
610.40	0.26565
610.60	0.26566
610.80	0.26566
611.00	0.26570
611.20	0.26572
611.40	0.26574
611.60	0.26575
611.80	0.26576
612.00	0.26576
612.20	0.26578
612.40	0.26583
612.60	0.26584
612.80	0.26585
613.00	0.26586
613.20	0.26588
613.40	0.26592
613.60	0.26592
613.80	0.26594
614.00	0.26594
614.20	0.26596
614.40	0.26597
614.60	0.26599
614.80	0.26604
615.00	0.26605
615.20	0.26610
615.40	0.26616
615.60	0.26616
615.80	0.26618
616.00	0.26618
616.20	0.26620
616.40	0.26623
616.60	0.26624
616.80	0.26626
617.00	0.26629
617.20	0.26633
617.40	0.26632
617.60	0.26632
617.80	0.26634
618.00	0.26637
618.20	0.26640
618.40	0.26643
618.60	0.26646
618.80	0.26651
619.00	0.26655
619.20	0.26661
619.40	0.26664
619.60	0.26666
619.80	0.26669
620.00	0.26670
620.20	0.26674
620.40	0.26675
620.60	0.26679
620.80	0.26681
621.00	0.26684
621.20	0.26689
621.40	0.26689
621.60	0.26688
621.80	0.26692
622.00	0.26693
622.20	0.26698
622.40	0.26699
622.60	0.26705
622.80	0.26708
623.00	0.26711
623.20	0.26713
623.40	0.26715
623.60	0.26721
623.80	0.26724
624.00	0.26732
624.20	0.26737
624.40	0.26738
624.60	0.26743
624.80	0.26748
625.00	0.26752
625.20	0.26760
625.40	0.26766
625.60	0.26770
625.80	0.26774
626.00	0.26781
626.20	0.26783
626.40	0.26789
626.60	0.26790
626.80	0.26803
627.00	0.26810
627.20	0.26815
627.40	0.26815
627.60	0.26820
627.80	0.26822
628.00	0.26830
628.20	0.26838
628.40	0.26845
628.60	0.26848
628.80	0.26858
629.00	0.26865
629.20	0.26874
629.40	0.26872
629.60	0.26879
629.80	0.26884
630.00	0.26894
630.20	0.26900
630.40	0.26906
630.60	0.26914
630.80	0.26918
631.00	0.26924
631.20	0.26933
631.40	0.26935
631.60	0.26940
631.80	0.26948
632.00	0.26958
632.20	0.26962
632.40	0.26972
632.60	0.26977
632.80	0.26982
633.00	0.26993
633.20	0.27000
633.40	0.27010
633.60	0.27022
633.80	0.27031
634.00	0.27048
634.20	0.27059
634.40	0.27072
634.60	0.27086
634.80	0.27105
635.00	0.27126
635.20	0.27146
635.40	0.27175
635.60	0.27198
635.80	0.27223
636.00	0.27255
636.20	0.27282
636.40	0.27313
636.60	0.27347
636.80	0.27384
637.00	0.27423
637.20	0.27462
637.40	0.27503
637.60	0.27540
637.80	0.27585
638.00	0.27625
638.20	0.27666
638.40	0.27709
638.60	0.27751
638.80	0.27794
639.00	0.27841
639.20	0.27885
639.40	0.27926
639.60	0.27970
639.80	0.28013
640.00	0.28056
640.20	0.28097
640.40	0.28134
640.60	0.28170
640.80	0.28209
641.00	0.28241
641.20	0.28268
641.40	0.28301
641.60	0.28328
641.80	0.28351
642.00	0.28370
642.20	0.28382
642.40	0.28396
642.60	0.28400
642.80	0.28409
643.00	0.28413
643.20	0.28416
643.40	0.28415
643.60	0.28412
643.80	0.28409
644.00	0.28397
644.20	0.28378
644.40	0.28361
644.60	0.28351
644.80	0.28337
645.00	0.28316
645.20	0.28300
645.40	0.28276
645.60	0.28252
645.80	0.28226
646.00	0.28197
646.20	0.28168
646.40	0.28137
646.60	0.28104
646.80	0.28081
647.00	0.28052
647.20	0.28020
647.40	0.27989
647.60	0.27959
647.80	0.27929
648.00	0.27902
648.20	0.27874
648.40	0.27844
648.60	0.27819
648.80	0.27795
649.00	0.27775
649.20	0.27753
649.40	0.27728
649.60	0.27710
649.80	0.27688
650.00	0.27671
650.20	0.27654
650.40	0.27637
650.60	0.27617
650.80	0.27602
651.00	0.27589
651.20	0.27575
651.40	0.27562
651.60	0.27545
651.80	0.27533
652.00	0.27522
652.20	0.27507
652.40	0.27496
652.60	0.27479
652.80	0.27469
653.00	0.27460
653.20	0.27448
653.40	0.27435
653.60	0.27426
653.80	0.27418
654.00	0.27405
654.20	0.27399
654.40	0.27387
654.60	0.27378
654.80	0.27368
655.00	0.27357
655.20	0.27349
655.40	0.27339
655.60	0.27325
655.80	0.27318
656.00	0.27310
656.20	0.27301
656.40	0.27291
656.60	0.27282
656.80	0.27278
657.00	0.27273
657.20	0.27262
657.40	0.27256
657.60	0.27256
657.80	0.27252
658.00	0.27246
658.20	0.27244
658.40	0.27242
658.60	0.27234
658.80	0.27234
659.00	0.27231
659.20	0.27228
659.40	0.27221
659.60	0.27218
659.80	0.27222
660.00	0.27220
660.20	0.27213
660.40	0.27210
660.60	0.27209
660.80	0.27211
661.00	0.27209
661.20	0.27212
661.40	0.27210
661.60	0.27209
661.80	0.27212
662.00	0.27211
662.20	0.27217
662.40	0.27214
662.60	0.27215
662.80	0.27219
663.00	0.27221
663.20	0.27221
663.40	0.27218
663.60	0.27219
663.80	0.27221
664.00	0.27220
664.20	0.27222
664.40	0.27221
664.60	0.27222
664.80	0.27220
665.00	0.27219
665.20	0.27224
665.40	0.27223
665.60	0.27225
665.80	0.27230
666.00	0.27230
666.20	0.27229
666.40	0.27227
666.60	0.27231
666.80	0.27234
667.00	0.27237
667.20	0.27243
667.40	0.27242
667.60	0.27245
667.80	0.27247
668.00	0.27247
668.20	0.27247
668.40	0.27250
668.60	0.27256
668.80	0.27260
669.00	0.27263
669.20	0.27265
669.40	0.27264
669.60	0.27268
669.80	0.27271
670.00	0.27273
670.20	0.27277
670.40	0.27279
670.60	0.27279
670.80	0.27285
671.00	0.27285
671.20	0.27286
671.40	0.27290
671.60	0.27293
671.80	0.27296
672.00	0.27300
672.20	0.27297
672.40	0.27295
672.60	0.27300
672.80	0.27303
673.00	0.27302
673.20	0.27306
673.40	0.27308
673.60	0.27313
673.80	0.27313
674.00	0.27313
674.20	0.27312
674.40	0.27311
674.60	0.27316
674.80	0.27316
675.00	0.27322
675.20	0.27323
675.40	0.27328
675.60	0.27329
675.80	0.27331
676.00	0.27333
676.20	0.27331
676.40	0.27334
676.60	0.27337
676.80	0.27342
677.00	0.27344
677.20	0.27345
677.40	0.27356
677.60	0.27349
677.80	0.27351
678.00	0.27348
678.20	0.27355
678.40	0.27357
678.60	0.27356
678.80	0.27359
679.00	0.27363
679.20	0.27365
679.40	0.27367
679.60	0.27369
679.80	0.27371
680.00	0.27367
680.20	0.27372
680.40	0.27376
680.60	0.27382
680.80	0.27377
681.00	0.27383
681.20	0.27384
681.40	0.27388
681.60	0.27389
681.80	0.27390
682.00	0.27390
682.20	0.27396
682.40	0.27396
682.60	0.27401
682.80	0.27401
683.00	0.27403
683.20	0.27405
683.40	0.27412
683.60	0.27414
683.80	0.27417
684.00	0.27416
684.20	0.27420
684.40	0.27421
684.60	0.27423
684.80	0.27422
685.00	0.27426
685.20	0.27424
685.40	0.27431
685.60	0.27432
685.80	0.27432
686.00	0.27434
686.20	0.27436
686.40	0.27440
686.60	0.27443
686.80	0.27436
687.00	0.27446
687.20	0.27458
687.40	0.27461
687.60	0.27464
687.80	0.27470
688.00	0.27473
688.20	0.27477
688.40	0.27485
688.60	0.27488
688.80	0.27493
689.00	0.27492
689.20	0.27496
689.40	0.27504
689.60	0.27504
689.80	0.27502
690.00	0.27508
690.20	0.27508
690.40	0.27513
690.60	0.27509
690.80	0.27506
691.00	0.27503
691.20	0.27510
691.40	0.27510
691.60	0.27516
691.80	0.27519
692.00	0.27521
692.20	0.27524
692.40	0.27527
692.60	0.27525
692.80	0.27531
693.00	0.27536
693.20	0.27545
693.40	0.27554
693.60	0.27564
693.80	0.27563
694.00	0.27568
694.20	0.27574
694.40	0.27580
694.60	0.27584
694.80	0.27587
695.00	0.27595
695.20	0.27599
695.40	0.27603
695.60	0.27605
695.80	0.27614
696.00	0.27615
696.20	0.27609
696.40	0.27611
696.60	0.27614
696.80	0.27618
697.00	0.27616
697.20	0.27623
697.40	0.27628
697.60	0.27631
697.80	0.27640
698.00	0.27643
698.20	0.27648
698.40	0.27644
698.60	0.27648
698.80	0.27659
699.00	0.27661
699.20	0.27662
699.40	0.27662
699.60	0.27662
699.80	0.27662
700.00	0.27661
700.20	0.27659
700.40	0.27660
700.60	0.27662
700.80	0.27662
701.00	0.27668
701.20	0.27673
701.40	0.27676
701.60	0.27680
701.80	0.27686
702.00	0.27692
702.20	0.27698
702.40	0.27704
702.60	0.27707
702.80	0.27711
703.00	0.27711
703.20	0.27716
703.40	0.27721
703.60	0.27725
703.80	0.27725
704.00	0.27732
704.20	0.27733
704.40	0.27735
704.60	0.27737
704.80	0.27737
705.00	0.27739
705.20	0.27748
705.40	0.27751
705.60	0.27757
705.80	0.27760
706.00	0.27761
706.20	0.27761
706.40	0.27763
706.60	0.27759
706.80	0.27764
707.00	0.27770
707.20	0.27774
707.40	0.27780
707.60	0.27786
707.80	0.27783
708.00	0.27785
708.20	0.27791
708.40	0.27794
708.60	0.27797
708.80	0.27801
709.00	0.27804
709.20	0.27806
709.40	0.27809
709.60	0.27805
709.80	0.27812
710.00	0.27815
710.20	0.27817
710.40	0.27818
710.60	0.27821
710.80	0.27814
711.00	0.27820
711.20	0.27825
711.40	0.27828
711.60	0.27835
711.80	0.27841
712.00	0.27846
712.20	0.27856
712.40	0.27852
712.60	0.27858
712.80	0.27860
713.00	0.27867
713.20	0.27871
713.40	0.27879
713.60	0.27874
713.80	0.27874
714.00	0.27879
714.20	0.27879
714.40	0.27882
714.60	0.27886
714.80	0.27884
715.00	0.27891
715.20	0.27891
715.40	0.27900
715.60	0.27905
715.80	0.27911
716.00	0.27909
716.20	0.27918
716.40	0.27922
716.60	0.27930
716.80	0.27936
717.00	0.27938
717.20	0.27937
717.40	0.27940
717.60	0.27944
717.80	0.27950
718.00	0.27950
718.20	0.27951
718.40	0.27953
718.60	0.27961
718.80	0.27956
719.00	0.27963
719.20	0.27957
719.40	0.27961
719.60	0.27960
719.80	0.27970
720.00	0.27971
720.20	0.27972
720.40	0.27969
720.60	0.27971
720.80	0.27970
721.00	0.27966
721.20	0.27968
721.40	0.27982
721.60	0.27982
721.80	0.27989
722.00	0.27991
722.20	0.27999
722.40	0.27999
722.60	0.28006
722.80	0.28009
723.00	0.28015
723.20	0.28020
723.40	0.28028
723.60	0.28038
723.80	0.28044
724.00	0.28045
724.20	0.28049
724.40	0.28052
724.60	0.28053
724.80	0.28055
725.00	0.28062
725.20	0.28068
725.40	0.28072
725.60	0.28079
725.80	0.28085
726.00	0.28089
726.20	0.28093
726.40	0.28093
726.60	0.28089
726.80	0.28089
727.00	0.28089
727.20	0.28095
727.40	0.28099
727.60	0.28099
727.80	0.28098
728.00	0.28103
728.20	0.28107
728.40	0.28102
728.60	0.28107
728.80	0.28111
729.00	0.28114
729.20	0.28119
729.40	0.28122
729.60	0.28137
729.80	0.28139
730.00	0.28143
730.20	0.28150
730.40	0.28161
730.60	0.28160
730.80	0.28162
731.00	0.28172
731.20	0.28172
731.40	0.28170
731.60	0.28179
731.80	0.28189
732.00	0.28195
732.20	0.28195
732.40	0.28202
732.60	0.28211
732.80	0.28217
733.00	0.28218
733.20	0.28227
733.40	0.28223
733.60	0.28229
733.80	0.28233
734.00	0.28240
734.20	0.28244
734.40	0.28243
734.60	0.28245
734.80	0.28243
735.00	0.28244
735.20	0.28250
735.40	0.28257
735.60	0.28255
735.80	0.28258
736.00	0.28271
736.20	0.28274
736.40	0.28279
736.60	0.28288
736.80	0.28294
737.00	0.28300
737.20	0.28311
737.40	0.28315
737.60	0.28325
737.80	0.28323
738.00	0.28318
738.20	0.28329
738.40	0.28331
738.60	0.28333
738.80	0.28331
739.00	0.28343
739.20	0.28340
739.40	0.28340
739.60	0.28350
739.80	0.28345
740.00	0.28345
740.20	0.28346
740.40	0.28344
740.60	0.28352
740.80	0.28354
741.00	0.28361
741.20	0.28370
741.40	0.28375
741.60	0.28378
741.80	0.28389
742.00	0.28393
742.20	0.28390
742.40	0.28390
742.60	0.28402
742.80	0.28412
743.00	0.28419
743.20	0.28416
743.40	0.28422
743.60	0.28428
743.80	0.28427
744.00	0.28428
744.20	0.28432
744.40	0.28433
744.60	0.28440
744.80	0.28439
745.00	0.28447
745.20	0.28451
745.40	0.28452
745.60	0.28457
745.80	0.28460
746.00	0.28457
746.20	0.28457
746.40	0.28460
746.60	0.28469
746.80	0.28466
747.00	0.28462
747.20	0.28466
747.40	0.28477
747.60	0.28488
747.80	0.28484
748.00	0.28484
748.20	0.28488
748.40	0.28497
748.60	0.28500
748.80	0.28501
749.00	0.28507
749.20	0.28505
749.40	0.28514
749.60	0.28528
749.80	0.28523
750.00	0.28518
750.20	0.28519
750.40	0.28530
750.60	0.28529
750.80	0.28539
751.00	0.28545
751.20	0.28557
751.40	0.28563
751.60	0.28566
751.80	0.28583
752.00	0.28588
752.20	0.28592
752.40	0.28599
752.60	0.28609
752.80	0.28614
753.00	0.28613
753.20	0.28627
753.40	0.28630
753.60	0.28630
753.80	0.28630
754.00	0.28638
754.20	0.28644
754.40	0.28644
754.60	0.28644
754.80	0.28645
755.00	0.28655
755.20	0.28664
755.40	0.28666
755.60	0.28667
755.80	0.28669
756.00	0.28666
756.20	0.28676
756.40	0.28680
756.60	0.28682
756.80	0.28679
757.00	0.28686
757.20	0.28690
757.40	0.28690
757.60	0.28690
757.80	0.28690
758.00	0.28704
758.20	0.28714
758.40	0.28717
758.60	0.28724
758.80	0.28720
759.00	0.28715
759.20	0.28713
759.40	0.28709
759.60	0.28698
759.80	0.28705
760.00	0.28707
760.20	0.28708
760.40	0.28706
760.60	0.28696
760.80	0.28694
761.00	0.28701
761.20	0.28693
761.40	0.28697
761.60	0.28717
761.80	0.28717
762.00	0.28734
762.20	0.28752
762.40	0.28766
762.60	0.28775
762.80	0.28790
763.00	0.28809
763.20	0.28826
763.40	0.28844
763.60	0.28849
763.80	0.28879
764.00	0.28893
764.20	0.28901
764.40	0.28921
764.60	0.28932
764.80	0.28937
765.00	0.28941
765.20	0.28945
765.40	0.28953
765.60	0.28958
765.80	0.28968
766.00	0.28979
766.20	0.28991
766.40	0.28986
766.60	0.28989
766.80	0.28991
767.00	0.28998
767.20	0.29008
767.40	0.29018
767.60	0.29021
767.80	0.29030
768.00	0.29029
768.20	0.29031
768.40	0.29039
768.60	0.29035
768.80	0.29037
769.00	0.29043
769.20	0.29043
769.40	0.29048
769.60	0.29052
769.80	0.29048
770.00	0.29036
770.20	0.29044
770.40	0.29052
770.60	0.29050
770.80	0.29042
771.00	0.29035
771.20	0.29037
771.40	0.29026
771.60	0.29027
771.80	0.29032
772.00	0.29028
772.20	0.29021
772.40	0.29017
772.60	0.29031
772.80	0.29024
773.00	0.29017
773.20	0.29021
773.40	0.29032
773.60	0.29021
773.80	0.29011
774.00	0.29017
774.20	0.29015
774.40	0.29015
774.60	0.29012
774.80	0.29016
775.00	0.29023
775.20	0.29007
775.40	0.29001
775.60	0.29004
775.80	0.29001
776.00	0.28999
776.20	0.29013
776.40	0.29024
776.60	0.29016
776.80	0.29015
777.00	0.29017
777.20	0.29023
777.40	0.29018
777.60	0.29006
777.80	0.29015
778.00	0.29024
778.20	0.29030
778.40	0.29039
778.60	0.29040
778.80	0.29039
779.00	0.29035
779.20	0.29045
779.40	0.29034
779.60	0.29034
779.80	0.29038
780.00	0.29056
780.20	0.29074
780.40	0.29075
780.60	0.29078
780.80	0.29086
781.00	0.29091
781.20	0.29095
781.40	0.29107
781.60	0.29112
781.80	0.29118
782.00	0.29142
782.20	0.29153
782.40	0.29155
782.60	0.29168
782.80	0.29169
783.00	0.29186
783.20	0.29189
783.40	0.29184
783.60	0.29188
783.80	0.29198
784.00	0.29201
784.20	0.29212
784.40	0.29211
784.60	0.29219
784.80	0.29219
785.00	0.29230
785.20	0.29227
785.40	0.29239
785.60	0.29236
785.80	0.29240
786.00	0.29254
786.20	0.29265
786.40	0.29267
786.60	0.29277
786.80	0.29280
787.00	0.29295
787.20	0.29302
787.40	0.29312
787.60	0.29317
787.80	0.29319
788.00	0.29326
788.20	0.29338
788.40	0.29352
788.60	0.29357
788.80	0.29355
789.00	0.29366
789.20	0.29362
789.40	0.29373
789.60	0.29375
789.80	0.29372
790.00	0.29376
790.20	0.29377
790.40	0.29379
790.60	0.29370
790.80	0.29373
791.00	0.29371
791.20	0.29373
791.40	0.29377
791.60	0.29375
791.80	0.29385
792.00	0.29373
792.20	0.29374
792.40	0.29380
792.60	0.29378
792.80	0.29379
793.00	0.29380
793.20	0.29389
793.40	0.29395
793.60	0.29395
793.80	0.29395
794.00	0.29398
794.20	0.29404
794.40	0.29405
794.60	0.29414
794.80	0.29415
795.00	0.29415
795.20	0.29415
795.40	0.29417
795.60	0.29422
795.80	0.29417
796.00	0.29409
796.20	0.29404
796.40	0.29412
796.60	0.29417
796.80	0.29416
797.00	0.29408
797.20	0.29421
797.40	0.29424
797.60	0.29433
797.80	0.29439
798.00	0.29461
798.20	0.29466
798.40	0.29463
798.60	0.29474
798.80	0.29482
799.00	0.29477
799.20	0.29475
799.40	0.29485
799.60	0.29491
799.80	0.29484
800.00	0.29487
800.20	0.29493
800.40	0.29496
800.60	0.29495
800.80	0.29494
801.00	0.29511
801.20	0.29505
801.40	0.29517
801.60	0.29523
801.80	0.29524
802.00	0.29534
802.20	0.29536
802.40	0.29547
802.60	0.29548
802.80	0.29549
803.00	0.29550
803.20	0.29552
803.40	0.29557
803.60	0.29559
803.80	0.29584
804.00	0.29594
804.20	0.29597
804.40	0.29600
804.60	0.29593
804.80	0.29605
805.00	0.29604
805.20	0.29602
805.40	0.29600
805.60	0.29613
805.80	0.29611
806.00	0.29621
806.20	0.29633
806.40	0.29637
806.60	0.29633
806.80	0.29648
807.00	0.29658
807.20	0.29664
807.40	0.29669
807.60	0.29680
807.80	0.29714
808.00	0.29723
808.20	0.29727
808.40	0.29729
808.60	0.29741
808.80	0.29742
809.00	0.29732
809.20	0.29737
809.40	0.29729
809.60	0.29735
809.80	0.29730
810.00	0.29732
810.20	0.29748
810.40	0.29744
810.60	0.29742
810.80	0.29747
811.00	0.29761
811.20	0.29754
811.40	0.29757
811.60	0.29760
811.80	0.29759
812.00	0.29771
812.20	0.29775
812.40	0.29789
812.60	0.29790
812.80	0.29788
813.00	0.29790
813.20	0.29800
813.40	0.29804
813.60	0.29804
813.80	0.29804
814.00	0.29803
814.20	0.29806
814.40	0.29824
814.60	0.29819
814.80	0.29822
815.00	0.29832
815.20	0.29839
815.40	0.29825
815.60	0.29819
815.80	0.29826
816.00	0.29826
816.20	0.29831
816.40	0.29834
816.60	0.29830
816.80	0.29827
817.00	0.29823
817.20	0.29834
817.40	0.29831
817.60	0.29831
817.80	0.29833
818.00	0.29853
818.20	0.29862
818.40	0.29851
818.60	0.29843
818.80	0.29840
819.00	0.29845
819.20	0.29862
819.40	0.29863
819.60	0.29848
819.80	0.29849
820.00	0.29847
820.20	0.29849
820.40	0.29842
820.60	0.29822
820.80	0.29814
821.00	0.29825
821.20	0.29830
821.40	0.29832
821.60	0.29834
821.80	0.29831
822.00	0.29850
822.20	0.29863
822.40	0.29862
822.60	0.29874
822.80	0.29866
823.00	0.29881
823.20	0.29898
823.40	0.29895
823.60	0.29898
823.80	0.29911
824.00	0.29913
824.20	0.29914
824.40	0.29917
824.60	0.29918
824.80	0.29923
825.00	0.29924
825.20	0.29933
825.40	0.29934
825.60	0.29920
825.80	0.29919
826.00	0.29922
826.20	0.29926
826.40	0.29921
826.60	0.29924
826.80	0.29927
827.00	0.29923
827.20	0.29920
827.40	0.29925
827.60	0.29922
827.80	0.29917
828.00	0.29934
828.20	0.29946
828.40	0.29951
828.60	0.29959
828.80	0.29961
829.00	0.29966
829.20	0.29971
829.40	0.29975
829.60	0.29977
829.80	0.29985
830.00	0.29983
830.20	0.29996
830.40	0.30007
830.60	0.30019
830.80	0.30017
831.00	0.30029
831.20	0.30032
831.40	0.30037
831.60	0.30053
831.80	0.30061
832.00	0.30064
832.20	0.30074
832.40	0.30080
832.60	0.30094
832.80	0.30101
833.00	0.30085
833.20	0.30071
833.40	0.30090
833.60	0.30090
833.80	0.30093
834.00	0.30088
834.20	0.30083
834.40	0.30093
834.60	0.30105
834.80	0.30096
835.00	0.30082
835.20	0.30072
835.40	0.30055
835.60	0.30074
835.80	0.30071
836.00	0.30065
836.20	0.30067
836.40	0.30063
836.60	0.30072
836.80	0.30061
837.00	0.30030
837.20	0.30020
837.40	0.30040
837.60	0.30057
837.80	0.30057
838.00	0.30078
838.20	0.30071
838.40	0.30080
838.60	0.30086
838.80	0.30093
839.00	0.30113
839.20	0.30118
839.40	0.30122
839.60	0.30144
839.80	0.30145
840.00	0.30138
840.20	0.30146
840.40	0.30158
840.60	0.30159
840.80	0.30166
841.00	0.30165
841.20	0.30154
841.40	0.30144
841.60	0.30126
841.80	0.30129
842.00	0.30136
842.20	0.30129
842.40	0.30133
842.60	0.30137
842.80	0.30118
843.00	0.30107
843.20	0.30100
843.40	0.30071
843.60	0.30086
843.80	0.30100
844.00	0.30091
844.20	0.30094
844.40	0.30093
844.60	0.30090
844.80	0.30094
845.00	0.30095
845.20	0.30086
845.40	0.30084
845.60	0.30086
845.80	0.30081
846.00	0.30098
846.20	0.30088
846.40	0.30064
846.60	0.30083
846.80	0.30088
847.00	0.30079
847.20	0.30069
847.40	0.30050
847.60	0.30050
847.80	0.30039
848.00	0.30051
848.20	0.30047
848.40	0.30055
848.60	0.30047
848.80	0.30028
849.00	0.30207
849.20	0.30353
849.40	0.30513
849.60	0.30680
849.80	0.30849
850.00	0.31029
850.20	0.31185
850.40	0.31364
850.60	0.31514
850.80	0.31686
851.00	0.31845
851.20	0.32021
851.40	0.32194
851.60	0.32191
851.80	0.32199
852.00	0.32202
852.20	0.32207
852.40	0.32210
852.60	0.32209
852.80	0.32213
853.00	0.32215
853.20	0.32228
853.40	0.32227
853.60	0.32229
853.80	0.32229
854.00	0.32245
854.20	0.32251
854.40	0.32255
854.60	0.32268
854.80	0.32268
855.00	0.32274
855.20	0.32282
855.40	0.32285
855.60	0.32287
855.80	0.32288
856.00	0.32297
856.20	0.32303
856.40	0.32313
856.60	0.32314
856.80	0.32322
857.00	0.32328
857.20	0.32325
857.40	0.32327
857.60	0.32330
857.80	0.32336
858.00	0.32347
858.20	0.32349
858.40	0.32353
858.60	0.32357
858.80	0.32364
859.00	0.32359
859.20	0.32357
859.40	0.32361
859.60	0.32361
859.80	0.32367
860.00	0.32367
860.20	0.32379
860.40	0.32381
860.60	0.32382
860.80	0.32394
861.00	0.32401
861.20	0.32402
861.40	0.32405
861.60	0.32411
861.80	0.32421
862.00	0.32416
862.20	0.32422
862.40	0.32420
862.60	0.32427
862.80	0.32428
863.00	0.32438
863.20	0.32440
863.40	0.32442
863.60	0.32441
863.80	0.32449
864.00	0.32453
864.20	0.32456
864.40	0.32454
864.60	0.32460
864.80	0.32459
865.00	0.32467
865.20	0.32470
865.40	0.32468
865.60	0.32468
865.80	0.32473
866.00	0.32472
866.20	0.32482
866.40	0.32484
866.60	0.32487
866.80	0.32491
867.00	0.32500
867.20	0.32506
867.40	0.32508
867.60	0.32515
867.80	0.32516
868.00	0.32524
868.20	0.32525
868.40	0.32528
868.60	0.32536
868.80	0.32535
869.00	0.32535
869.20	0.32536
869.40	0.32536
869.60	0.32533
869.80	0.32538
870.00	0.32543
870.20	0.32541
870.40	0.32544
870.60	0.32543
870.80	0.32545
871.00	0.32542
871.20	0.32545
871.40	0.32547
871.60	0.32547
871.80	0.32547
872.00	0.32554
872.20	0.32562
872.40	0.32557
872.60	0.32558
872.80	0.32564
873.00	0.32567
873.20	0.32571
873.40	0.32575
873.60	0.32580
873.80	0.32579
874.00	0.32583
874.20	0.32590
874.40	0.32595
874.60	0.32591
874.80	0.32594
875.00	0.32598
875.20	0.32609
875.40	0.32609
875.60	0.32617
875.80	0.32621
876.00	0.32622
876.20	0.32622
876.40	0.32631
876.60	0.32633
876.80	0.32640
877.00	0.32644
877.20	0.32655
877.40	0.32658
877.60	0.32666
877.80	0.32660
878.00	0.32670
878.20	0.32671
878.40	0.32668
878.60	0.32672
878.80	0.32683
879.00	0.32688
879.20	0.32695
879.40	0.32703
879.60	0.32703
879.80	0.32703
880.00	0.32704
880.20	0.32711
880.40	0.32716
880.60	0.32716
880.80	0.32723
881.00	0.32733
881.20	0.32739
881.40	0.32741
881.60	0.32738
881.80	0.32736
882.00	0.32734
882.20	0.32744
882.40	0.32746
882.60	0.32750
882.80	0.32744
883.00	0.32752
883.20	0.32755
883.40	0.32755
883.60	0.32756
883.80	0.32762
884.00	0.32768
884.20	0.32771
884.40	0.32777
884.60	0.32778
884.80	0.32776
885.00	0.32782
885.20	0.32785
885.40	0.32796
885.60	0.32804
885.80	0.32811
886.00	0.32813
886.20	0.32817
886.40	0.32820
886.60	0.32818
886.80	0.32828
887.00	0.32832
887.20	0.32839
887.40	0.32846
887.60	0.32856
887.80	0.32864
888.00	0.32866
888.20	0.32865
888.40	0.32870
888.60	0.32873
888.80	0.32881
889.00	0.32883
889.20	0.32890
889.40	0.32890
889.60	0.32895
889.80	0.32898
890.00	0.32902
890.20	0.32905
890.40	0.32903
890.60	0.32907
890.80	0.32913
891.00	0.32915
891.20	0.32924
891.40	0.32926
891.60	0.32935
891.80	0.32938
892.00	0.32943
892.20	0.32948
892.40	0.32957
892.60	0.32964
892.80	0.32970
893.00	0.32981
893.20	0.32987
893.40	0.32991
893.60	0.32997
893.80	0.33000
894.00	0.33004
894.20	0.33008
894.40	0.33010
894.60	0.33019
894.80	0.33025
895.00	0.33024
895.20	0.33027
895.40	0.33029
895.60	0.33030
895.80	0.33033
896.00	0.33035
896.20	0.33037
896.40	0.33044
896.60	0.33052
896.80	0.33051
897.00	0.33054
897.20	0.33053
897.40	0.33051
897.60	0.33054
897.80	0.33051
898.00	0.33049
898.20	0.33049
898.40	0.33048
898.60	0.33054
898.80	0.33052
899.00	0.33045
899.20	0.33038
899.40	0.33040
899.60	0.33042
899.80	0.33044
900.00	0.33047
900.20	0.33049
900.40	0.33055
900.60	0.33060
900.80	0.33066
901.00	0.33070
901.20	0.33067
901.40	0.33067
901.60	0.33075
901.80	0.33076
902.00	0.33080
902.20	0.33086
902.40	0.33092
902.60	0.33097
902.80	0.33097
903.00	0.33100
903.20	0.33103
903.40	0.33099
903.60	0.33104
903.80	0.33110
904.00	0.33116
904.20	0.33117
904.40	0.33125
904.60	0.33129
904.80	0.33134
905.00	0.33139
905.20	0.33142
905.40	0.33145
905.60	0.33150
905.80	0.33153
906.00	0.33163
906.20	0.33165
906.40	0.33173
906.60	0.33182
906.80	0.33189
907.00	0.33194
907.20	0.33199
907.40	0.33200
907.60	0.33198
907.80	0.33203
908.00	0.33212
908.20	0.33215
908.40	0.33225
908.60	0.33228
908.80	0.33230
909.00	0.33233
909.20	0.33235
909.40	0.33241
909.60	0.33246
909.80	0.33252
910.00	0.33259
910.20	0.33266
910.40	0.33267
910.60	0.33271
910.80	0.33278
911.00	0.33280
911.20	0.33282
911.40	0.33289
911.60	0.33292
911.80	0.33296
912.00	0.33297
912.20	0.33301
912.40	0.33303
912.60	0.33308
912.80	0.33314
913.00	0.33319
913.20	0.33323
913.40	0.33327
913.60	0.33333
913.80	0.33339
914.00	0.33342
914.20	0.33350
914.40	0.33352
914.60	0.33360
914.80	0.33370
915.00	0.33375
915.20	0.33376
915.40	0.33379
915.60	0.33387
915.80	0.33397
916.00	0.33404
916.20	0.33405
916.40	0.33409
916.60	0.33416
916.80	0.33422
917.00	0.33432
917.20	0.33435
917.40	0.33433
917.60	0.33441
917.80	0.33449
918.00	0.33458
918.20	0.33462
918.40	0.33462
918.60	0.33468
918.80	0.33478
919.00	0.33486
919.20	0.33492
919.40	0.33500
919.60	0.33504
919.80	0.33511
920.00	0.33522
920.20	0.33528
920.40	0.33537
920.60	0.33547
920.80	0.33555
921.00	0.33564
921.20	0.33566
921.40	0.33571
921.60	0.33581
921.80	0.33590
922.00	0.33596
922.20	0.33604
922.40	0.33613
922.60	0.33620
922.80	0.33627
923.00	0.33636
923.20	0.33639
923.40	0.33645
923.60	0.33654
923.80	0.33667
924.00	0.33677
924.20	0.33686
924.40	0.33695
924.60	0.33701
924.80	0.33710
925.00	0.33726
925.20	0.33735
925.40	0.33745
925.60	0.33754
925.80	0.33766
926.00	0.33777
926.20	0.33785
926.40	0.33794
926.60	0.33802
926.80	0.33805
927.00	0.33814
927.20	0.33824
927.40	0.33832
927.60	0.33832
927.80	0.33838
928.00	0.33847
928.20	0.33849
928.40	0.33855
928.60	0.33864
928.80	0.33873
929.00	0.33881
929.20	0.33892
929.40	0.33905
929.60	0.33911
929.80	0.33919
930.00	0.33926
930.20	0.33934
930.40	0.33945
930.60	0.33951
930.80	0.33965
931.00	0.33971
931.20	0.33979
931.40	0.33988
931.60	0.33994
931.80	0.34001
932.00	0.34009
932.20	0.34016
932.40	0.34025
932.60	0.34035
932.80	0.34045
933.00	0.34049
933.20	0.34058
933.40	0.34064
933.60	0.34070
933.80	0.34080
934.00	0.34087
934.20	0.34093
934.40	0.34100
934.60	0.34107
934.80	0.34120
935.00	0.34128
935.20	0.34138
935.40	0.34147
935.60	0.34157
935.80	0.34167
936.00	0.34176
936.20	0.34188
936.40	0.34193
936.60	0.34199
936.80	0.34210
937.00	0.34218
937.20	0.34229
937.40	0.34235
937.60	0.34243
937.80	0.34249
938.00	0.34256
938.20	0.34262
938.40	0.34267
938.60	0.34275
938.80	0.34282
939.00	0.34291
939.20	0.34298
939.40	0.34310
939.60	0.34320
939.80	0.34323
940.00	0.34328
940.20	0.34338
940.40	0.34346
940.60	0.34354
940.80	0.34366
941.00	0.34377
941.20	0.34388
941.40	0.34399
941.60	0.34406
941.80	0.34417
942.00	0.34424
942.20	0.34434
942.40	0.34449
942.60	0.34461
942.80	0.34471
943.00	0.34485
943.20	0.34498
943.40	0.34509
943.60	0.34518
943.80	0.34528
944.00	0.34538
944.20	0.34552
944.40	0.34565
944.60	0.34578
944.80	0.34591
945.00	0.34602
945.20	0.34614
945.40	0.34624
945.60	0.34632
945.80	0.34643
946.00	0.34654
946.20	0.34667
946.40	0.34676
946.60	0.34690
946.80	0.34701
947.00	0.34712
947.20	0.34721
947.40	0.34732
947.60	0.34740
947.80	0.34752
948.00	0.34765
948.20	0.34779
948.40	0.34789
948.60	0.34801
948.80	0.34814
949.00	0.34829
949.20	0.34842
949.40	0.34853
949.60	0.34866
949.80	0.34880
950.00	0.34891
950.20	0.34906
950.40	0.34918
950.60	0.34930
950.80	0.34946
951.00	0.34960
951.20	0.34973
951.40	0.34986
951.60	0.34998
951.80	0.35010
952.00	0.35020
952.20	0.35033
952.40	0.35046
952.60	0.35061
952.80	0.35070
953.00	0.35083
953.20	0.35096
953.40	0.35105
953.60	0.35119
953.80	0.35132
954.00	0.35145
954.20	0.35156
954.40	0.35169
954.60	0.35185
954.80	0.35197
955.00	0.35213
955.20	0.35229
955.40	0.35245
955.60	0.35257
955.80	0.35274
956.00	0.35288
956.20	0.35300
956.40	0.35315
956.60	0.35331
956.80	0.35347
957.00	0.35365
957.20	0.35383
957.40	0.35400
957.60	0.35413
957.80	0.35426
958.00	0.35443
958.20	0.35459
958.40	0.35473
958.60	0.35488
958.80	0.35507
959.00	0.35523
959.20	0.35539
959.40	0.35557
959.60	0.35571
959.80	0.35584
960.00	0.35599
960.20	0.35615
960.40	0.35633
960.60	0.35652
960.80	0.35673
961.00	0.35690
961.20	0.35711
961.40	0.35728
961.60	0.35744
961.80	0.35760
962.00	0.35777
962.20	0.35793
962.40	0.35810
962.60	0.35829
962.80	0.35847
963.00	0.35864
963.20	0.35876
963.40	0.35892
963.60	0.35911
963.80	0.35927
964.00	0.35945
964.20	0.35962
964.40	0.35982
964.60	0.36000
964.80	0.36021
965.00	0.36037
965.20	0.36054
965.40	0.36073
965.60	0.36092
965.80	0.36113
966.00	0.36130
966.20	0.36148
966.40	0.36166
966.60	0.36185
966.80	0.36205
967.00	0.36223
967.20	0.36243
967.40	0.36262
967.60	0.36286
967.80	0.36307
968.00	0.36330
968.20	0.36353
968.40	0.36377
968.60	0.36400
968.80	0.36427
969.00	0.36454
969.20	0.36482
969.40	0.36510
969.60	0.36540
969.80	0.36571
970.00	0.36604
970.20	0.36640
970.40	0.36677
970.60	0.36712
970.80	0.36747
971.00	0.36788
971.20	0.36832
971.40	0.36874
971.60	0.36922
971.80	0.36971
972.00	0.37024
972.20	0.37076
972.40	0.37131
972.60	0.37189
972.80	0.37247
973.00	0.37309
973.20	0.37372
973.40	0.37441
973.60	0.37507
973.80	0.37574
974.00	0.37637
974.20	0.37701
974.40	0.37767
974.60	0.37828
974.80	0.37888
975.00	0.37945
975.20	0.37996
975.40	0.38040
975.60	0.38079
975.80	0.38115
976.00	0.38142
976.20	0.38161
976.40	0.38176
976.60	0.38183
976.80	0.38178
977.00	0.38163
977.20	0.38144
977.40	0.38119
977.60	0.38085
977.80	0.38045
978.00	0.38002
978.20	0.37951
978.40	0.37895
978.60	0.37837
978.80	0.37776
979.00	0.37710
979.20	0.37647
979.40	0.37580
979.60	0.37516
979.80	0.37446
980.00	0.37382
980.20	0.37317
980.40	0.37255
980.60	0.37191
980.80	0.37128
981.00	0.37072
981.20	0.37011
981.40	0.36957
981.60	0.36905
981.80	0.36851
982.00	0.36805
982.20	0.36758
982.40	0.36714
982.60	0.36673
982.80	0.36634
983.00	0.36596
983.20	0.36561
983.40	0.36530
983.60	0.36499
983.80	0.36471
984.00	0.36436
984.20	0.36410
984.40	0.36381
984.60	0.36356
984.80	0.36328
985.00	0.36305
985.20	0.36276
985.40	0.36251
985.60	0.36224
985.80	0.36201
986.00	0.36180
986.20	0.36155
986.40	0.36133
986.60	0.36116
986.80	0.36092
987.00	0.36074
987.20	0.36053
987.40	0.36035
987.60	0.36014
987.80	0.35996
988.00	0.35980
988.20	0.35963
988.40	0.35947
988.60	0.35931
988.80	0.35913
989.00	0.35897
989.20	0.35877
989.40	0.35861
989.60	0.35846
989.80	0.35830
990.00	0.35816
990.20	0.35801
990.40	0.35787
990.60	0.35772
990.80	0.35757
991.00	0.35744
991.20	0.35730
991.40	0.35716
991.60	0.35701
991.80	0.35689
992.00	0.35672
992.20	0.35658
992.40	0.35645
992.60	0.35628
992.80	0.35614
993.00	0.35601
993.20	0.35586
993.40	0.35573
993.60	0.35557
993.80	0.35537
994.00	0.35522
994.20	0.35508
994.40	0.35493
994.60	0.35482
994.80	0.35466
995.00	0.35449
995.20	0.35435
995.40	0.35421
995.60	0.35404
995.80	0.35391
996.00	0.35374
996.20	0.35357
996.40	0.35343
996.60	0.35326
996.80	0.35311
997.00	0.35293
997.20	0.35276
997.40	0.35259
997.60	0.35245
997.80	0.35229
998.00	0.35213
998.20	0.35196
998.40	0.35177
998.60	0.35162
998.80	0.35149
999.00	0.35133
999.20	0.35120
999.40	0.35104
999.60	0.35091
999.80	0.35077
1000.00	0.35063
1000.20	0.35044
1000.40	0.35030
1000.60	0.35017
1000.80	0.35006
1001.00	0.34992
1001.20	0.34978
1001.40	0.34961
1001.60	0.34951
1001.80	0.34936
1002.00	0.34925
1002.20	0.34914
1002.40	0.34902
1002.60	0.34890
1002.80	0.34881
1003.00	0.34871
1003.20	0.34860
1003.40	0.34849
1003.60	0.34838
1003.80	0.34827
1004.00	0.34818
1004.20	0.34807
1004.40	0.34798
1004.60	0.34788
1004.80	0.34778
1005.00	0.34769
1005.20	0.34761
1005.40	0.34752
1005.60	0.34742
1005.80	0.34731
1006.00	0.34722
1006.20	0.34715
1006.40	0.34707
1006.60	0.34698
1006.80	0.34687
1007.00	0.34676
1007.20	0.34668
1007.40	0.34655
1007.60	0.34645
1007.80	0.34638
1008.00	0.34628
1008.20	0.34619
1008.40	0.34610
1008.60	0.34603
1008.80	0.34592
1009.00	0.34580
1009.20	0.34571
1009.40	0.34562
1009.60	0.34556
1009.80	0.34548
1010.00	0.34541
1010.20	0.34533
1010.40	0.34524
1010.60	0.34518
1010.80	0.34510
1011.00	0.34502
1011.20	0.34493
1011.40	0.34485
1011.60	0.34478
1011.80	0.34471
1012.00	0.34465
1012.20	0.34457
1012.40	0.34449
1012.60	0.34443
1012.80	0.34433
1013.00	0.34424
1013.20	0.34414
1013.40	0.34405
1013.60	0.34397
1013.80	0.34391
1014.00	0.34385
1014.20	0.34377
1014.40	0.34366
1014.60	0.34354
1014.80	0.34347
1015.00	0.34337
1015.20	0.34326
1015.40	0.34320
1015.60	0.34311
1015.80	0.34303
1016.00	0.34297
1016.20	0.34289
1016.40	0.34277
1016.60	0.34268
1016.80	0.34262
1017.00	0.34257
1017.20	0.34252
1017.40	0.34245
1017.60	0.34241
1017.80	0.34235
1018.00	0.34230
1018.20	0.34227
1018.40	0.34224
1018.60	0.34220
1018.80	0.34216
1019.00	0.34215
1019.20	0.34213
1019.40	0.34210
1019.60	0.34209
1019.80	0.34209
1020.00	0.34207
1020.20	 
1020.40	 
1020.60	 
1020.80	 
1021.00	 
1021.20	 
1021.40	 
1021.60	 
1021.80	 
1022.00	 
1022.20	 
1022.40	 
1022.60	 
1022.80	 
1023.00	 
1023.20	 
1023.40	 
1023.60	 
1023.80	 
1024.00	 
1024.20	 
1024.40	 
1024.60	 
1024.80	 
1025.00	 
1025.20	 
1025.40	 
1025.60	 
1025.80	 
1026.00	 
1026.20	 
1026.40	 
1026.60	 
1026.80	 
1027.00	 
1027.20	 
1027.40	 
1027.60	 
1027.80	 
1028.00	 
1028.20	 
1028.40	 
1028.60	 
1028.80	 
1029.00	 
1029.20	 
1029.40	 
1029.60	 
1029.80	 
1030.00	 
